# Format: McCode with text headers
# URL: http://www.mccode.org
# Creator: McStas 2.7.1 - Oct. 04, 2021
# Instrument: ThALES_resolution_v2.instr
# Ncount: 10000000
# Trace: no
# Gravitation: no
# Seed: 1638909839
# Directory: ei_scan
# Param: ThALES_dE=0.5
# Param: A3=0
# Param: A4=20
# Param: Ei=20
# Param: Ef=5
# Param: q_x_elastic=1.3139
# Param: q_z_elastic=0.146
# Param: SAMPLE=0
# Date: Tue Dec  7 11:44:14 2021 (1638873854)
# type: array_1d(200)
# Source: ThALES_double_peak10 (ThALES_resolution_v2.instr)
# component: E_sample_mon
# position: 1.64031 0 20.8925
# title: Energy monitor
# Ncount: 10000000
# filename: E_sample_mon.dat
# statistics: X0=19.9842; dX=0.276312;
# signal: Min=8.48315e+06; Max=3.1312e+07; Mean=2.27089e+07;
# values: 4.54178e+09 2.58108e+07 44089
# xvar: E
# yvar: (I,I_err)
# xlabel: Energy [meV]
# ylabel: Intensity
# xlimits: 19.5 20.5
# variables: E I I_err N
19.5025 21189512.62 1763568.878 207 
19.5075 18288714.1 1603776.933 183 
19.5125 19064475.76 1681066.835 183 
19.5175 19588537.84 1691749.877 182 
19.5225 17159998.28 1573731.637 185 
19.5275 20290426.31 1719306.207 196 
19.5325 25339092.58 1922522.823 236 
19.5375 22316412.26 1805034.245 211 
19.5425 21329087.93 1781816.936 206 
19.5475 18371486.64 1641019.883 173 
19.5525 22291695.26 1803657.331 205 
19.5575 18982517.02 1621866.449 200 
19.5625 22673993.13 1828646.768 236 
19.5675 20110051.52 1712244.956 201 
19.5725 24566303.69 1882535.549 234 
19.5775 20940958.15 1737773.765 202 
19.5825 22952416.47 1832088.566 214 
19.5875 25199842.22 1928338.084 233 
19.5925 24952833.66 1903329.292 237 
19.5975 24568692.47 1911959.381 234 
19.6025 23397250.07 1852369.98 219 
19.6075 22960655.71 1820387.689 205 
19.6125 20144600.61 1734117.659 198 
19.6175 23022567.01 1845615.723 218 
19.6225 18029103.28 1599891.516 192 
19.6275 22605056.46 1818054.329 230 
19.6325 20083761.83 1709301.157 214 
19.6375 21798372.54 1779775.478 212 
19.6425 23446721.84 1856648.129 222 
19.6475 23453530.44 1832856.205 232 
19.6525 22806343.96 1823045.149 230 
19.6575 27430559.15 1997543.433 247 
19.6625 25070086.1 1912977.361 237 
19.6675 23596443.19 1833061.674 245 
19.6725 25777797.76 1931347.211 251 
19.6775 24819607.75 1901369.937 221 
19.6825 21669177.41 1777251.48 229 
19.6875 25301006.75 1896149.21 247 
19.6925 25154222.83 1911801.835 247 
19.6975 21708756.37 1793129.613 216 
19.7025 22931996.67 1821023.692 242 
19.7075 25205581.98 1925978.96 251 
19.7125 24286367.8 1903564.72 226 
19.7175 23718207.51 1852856.417 230 
19.7225 22504024.75 1794552.967 218 
19.7275 27900714.28 2018106.162 273 
19.7325 22551077.78 1818777.583 210 
19.7375 22963337.69 1837392.412 225 
19.7425 26330248.23 1934746.338 261 
19.7475 22786363.3 1820235.455 231 
19.7525 25927928.72 1948248.853 246 
19.7575 24982513.92 1910486.94 239 
19.7625 24896249.85 1899590.859 246 
19.7675 23936813.62 1851444.791 231 
19.7725 26076232.33 1954533.922 239 
19.7775 22488820.58 1797081.193 225 
19.7825 22255659.6 1810908.275 226 
19.7875 27192551.3 1995026.163 253 
19.7925 22817998.34 1821864.553 233 
19.7975 25190918.14 1905184.46 256 
19.8025 26126650.52 1949114.758 271 
19.8075 26013526.21 1941867.071 254 
19.8125 24280545.8 1872460.681 248 
19.8175 26223693.19 1951493.026 248 
19.8225 26615244.83 1958666.701 259 
19.8275 23685696.13 1842758.601 255 
19.8325 25197399.65 1913388.678 244 
19.8375 24917250.39 1922993.781 242 
19.8425 21972696.82 1792986.1 229 
19.8475 27091570.91 2008232.047 252 
19.8525 22949004.61 1840364.244 227 
19.8575 22729623.03 1829841.249 220 
19.8625 24622241.17 1898603.659 239 
19.8675 27266680.93 1998419.566 257 
19.8725 28198007.86 2026686.328 278 
19.8775 21957809.21 1779711.723 234 
19.8825 24746125.71 1897481.522 234 
19.8875 23459693.5 1843233.71 240 
19.8925 23108808.98 1826539.045 232 
19.8975 24715148.09 1911269.355 239 
19.9025 26797543.03 1973485.009 264 
19.9075 23698567.3 1845627.362 240 
19.9125 26440073.16 1961258.24 260 
19.9175 21575327.37 1770114.458 235 
19.9225 21872616.36 1782913.045 222 
19.9275 22299853.64 1782802.954 229 
19.9325 25844187.03 1948363.111 256 
19.9375 27674980.29 2012204.718 267 
19.9425 24802057.75 1904889.089 253 
19.9475 24858880.43 1913204.847 253 
19.9525 25247343.73 1927160.119 236 
19.9575 24937099.07 1899097.747 245 
19.9625 25353667.33 1934101.843 243 
19.9675 28564831.83 2067422.758 264 
19.9725 22429792.77 1818230.015 224 
19.9775 27819243.03 2030887.487 255 
19.9825 24661771.44 1888570.052 260 
19.9875 25756314.82 1975447.861 259 
19.9925 24608147.57 1888462.612 255 
19.9975 31312019.1 2145476.288 280 
20.0025 23042190.05 1848190.54 218 
20.0075 26953604.72 1997258.682 259 
20.0125 26613288 1978884.298 265 
20.0175 27871552.83 2034851.272 258 
20.0225 26544406.74 1973929.743 262 
20.0275 23353435.6 1851318.804 227 
20.0325 20727700.22 1756003.424 222 
20.0375 24914273.17 1896465.968 277 
20.0425 23549785.12 1859011.694 239 
20.0475 22436890.29 1806998.359 236 
20.0525 26240616.39 1974557.146 241 
20.0575 27130007.47 2011708.668 257 
20.0625 25128712.83 1921379.483 239 
20.0675 23941214.15 1881567.156 233 
20.0725 21600307.5 1786284.261 213 
20.0775 29845752.08 2098565.379 274 
20.0825 21883015.78 1786481.203 242 
20.0875 23476577.66 1843966.052 223 
20.0925 24398630.82 1896008.944 246 
20.0975 24498049.14 1886470.973 234 
20.1025 25620601.94 1940503.179 249 
20.1075 22459658.87 1809583.39 214 
20.1125 22785338.51 1818932.913 243 
20.1175 24241009 1893086.037 242 
20.1225 23665546.24 1870401.731 232 
20.1275 21938837.86 1791100.751 224 
20.1325 25654964.11 1939640.611 259 
20.1375 20532267.2 1742202.957 201 
20.1425 24723483.04 1918038.305 243 
20.1475 24075946.25 1882635.326 229 
20.1525 25333365.7 1924071.832 237 
20.1575 19976175.13 1724307.699 203 
20.1625 21037781.56 1763426.77 210 
20.1675 23356663.75 1852878.263 225 
20.1725 21641832.66 1774633.313 229 
20.1775 21642714.41 1786882.749 215 
20.1825 24246176.77 1901285.216 228 
20.1875 22043549.39 1814637.614 215 
20.1925 22647668.15 1834629.963 227 
20.1975 25265107.5 1927035.799 248 
20.2025 21319814.15 1773394.417 203 
20.2075 25645235.53 1948943.261 243 
20.2125 24638286.42 1883397.348 235 
20.2175 22075106.33 1811755.718 197 
20.2225 20388158.94 1735329.204 195 
20.2275 23255693.7 1852328.578 219 
20.2325 24596976.83 1919736.979 224 
20.2375 19764384.6 1709522.894 188 
20.2425 20490742.54 1747758.008 199 
20.2475 22032484.74 1800587.923 221 
20.2525 22778275.41 1814829.236 222 
20.2575 22820880.96 1845254.362 218 
20.2625 24574408.56 1895861.148 227 
20.2675 20725277.7 1735054.856 192 
20.2725 23690266.58 1883545.49 223 
20.2775 19517841.76 1706894.178 191 
20.2825 22329159.96 1822827.016 216 
20.2875 22713729.02 1853652.008 199 
20.2925 22858744.03 1830810.656 219 
20.2975 21148679.31 1766828.22 194 
20.3025 21954233.65 1810944.856 218 
20.3075 21751464.27 1792396.81 188 
20.3125 24059115.08 1887138.933 212 
20.3175 19207666.26 1702832.175 179 
20.3225 20512258.3 1749866.175 198 
20.3275 21066473.2 1764985.2 197 
20.3325 23530341.85 1869551.214 223 
20.3375 19566688.97 1699752.514 186 
20.3425 20290786.39 1724009.868 198 
20.3475 18771870.96 1659977.443 189 
20.3525 21130172.49 1780724.774 201 
20.3575 19522213.27 1689752.979 206 
20.3625 20568301.87 1748385.906 188 
20.3675 17395998.23 1608445.979 158 
20.3725 17751649.82 1611944.824 171 
20.3775 19287473.9 1691033.496 187 
20.3825 18870785.21 1678403.088 194 
20.3875 19926392.42 1706548.117 195 
20.3925 20708681.87 1761604.057 193 
20.3975 22373163.54 1845627.547 202 
20.4025 18924832.12 1683683.735 174 
20.4075 17090654.16 1593117.363 176 
20.4125 19895616.85 1745519.758 173 
20.4175 16663991.17 1581756.456 158 
20.4225 17085224.75 1598297.716 157 
20.4275 19422235.92 1712136.004 169 
20.4325 19209315.42 1703243.218 176 
20.4375 20417715.19 1751393.498 186 
20.4425 18372173.43 1643269.005 180 
20.4475 18591346.75 1677422.559 167 
20.4525 19497428.16 1721401.042 170 
20.4575 19482762.97 1707952.028 171 
20.4625 15963654.2 1560749.317 155 
20.4675 16982427.42 1590214.188 149 
20.4725 17530293.48 1623411.789 161 
20.4775 16126899.51 1548528.031 153 
20.4825 17581599.36 1630040.357 172 
20.4875 15728626.34 1548356.895 144 
20.4925 14253457.91 1458699.998 133 
20.4975 8483147.775 1107656.187 86 
